File: Battery Recycling/6.27.2024/Air_Background_FTIR.tsv
X	Y
400.163	2.21539
412.217	4.07727
424.27	5.30514
436.323	7.09433
448.376	8.74143
460.429	9.66348
472.482	10.4371
484.535	12.5407
496.588	14.8229
508.641	16.4704
520.695	18.3207
532.748	20.5749
544.801	21.5087
556.854	22.8136
568.907	23.6886
580.96	24.8103
593.013	25.8162
605.066	27.5119
617.12	28.1299
629.173	30.034
641.226	30.0208
653.279	29.4071
665.332	28.9545
677.385	30.737
689.438	32.7266
701.491	36.1668
713.544	37.6378
725.598	38.292
737.651	38.7697
749.704	39.5571
761.757	40.3866
773.81	41.0169
785.863	41.2994
797.916	41.0928
809.969	41.6665
822.022	42.3386
834.076	42.8593
846.129	43.2747
858.182	43.9708
870.235	44.877
882.288	45.992
894.341	47.0325
906.394	48.1599
918.447	49.4729
930.501	51.089
942.554	52.711
954.607	54.0647
966.66	55.0389
978.713	55.7601
990.766	56.3082
1002.82	56.5818
1014.87	55.8763
1026.93	55.0619
1038.98	54.258
1051.03	53.3859
1063.08	52.8973
1075.14	52.491
1087.19	53.3813
1099.24	54.6669
1111.3	56.6481
1123.35	58.8873
1135.4	60.9508
1147.46	62.7876
1159.51	64.4744
1171.56	65.8704
1183.62	67.146
1195.67	68.6453
1207.72	69.9185
1219.78	71.0118
1231.83	72.1654
1243.88	73.1127
1255.93	73.2764
1267.99	73.6869
1280.04	75.3924
1292.09	75.9725
1304.15	76.2304
1316.2	74.8851
1328.25	76.6512
1340.31	70.8657
1352.36	75.6705
1364.41	70.4414
1376.47	71.598
1388.52	69.6123
1400.57	71.0996
1412.63	75.6362
1424.68	71.8296
1436.73	59.6603
1448.78	71.29
1460.84	72.3361
1472.89	55.2699
1484.94	75.0494
1497	60.8577
1509.05	54.1319
1521.1	48.2366
1533.16	58.4635
1545.21	58.7112
1557.26	40.5076
1569.32	59.7695
1581.37	75.5466
1593.42	75.2082
1605.48	76.2723
1617.53	61.7316
1629.58	74.3875
1641.63	76.4085
1653.69	40.1076
1665.74	75.0876
1677.79	71.9273
1689.85	72.1088
1701.9	56.0201
1713.95	64.0159
1726.01	77.8688
1738.06	68.6137
1750.11	61.0896
1762.17	69.7627
1774.22	67.5994
1786.27	76.848
1798.32	73.4226
1810.38	74.53
1822.43	76.8942
1834.48	78.3456
1846.54	72.6041
1858.59	78.2789
1870.64	72.5683
1882.7	77.9374
1894.75	75.852
1906.8	76.3497
1918.86	72.3907
1930.91	76.8928
1942.96	72.1412
1955.02	75.6212
1967.07	73.7555
1979.12	75.7209
1991.17	72.7105
2003.23	75.0296
2015.28	73.6852
2027.33	73.6997
2039.39	73.5115
2051.44	73.4297
2063.49	72.507
2075.55	72.5561
2087.6	72.094
2099.65	71.8479
2111.71	71.4497
2123.76	71.0521
2135.81	70.5856
2147.87	70.2916
2159.92	69.8945
2171.97	69.5109
2184.02	69.0987
2196.08	68.6831
2208.13	68.2746
2220.18	67.9128
2232.24	67.4168
2244.29	66.7695
2256.34	65.7123
2268.4	64.5438
2280.45	64.7057
2292.5	61.0906
2304.56	53.4996
2316.61	40.5724
2328.66	28.4185
2340.72	25.0574
2352.77	25.6063
2364.82	19.8372
2376.87	42.0175
2388.93	61.7685
2400.98	61.6658
2413.03	61.2278
2425.09	60.7598
2437.14	60.3345
2449.19	59.8946
2461.25	59.475
2473.3	59.0474
2485.35	58.5995
2497.41	58.1473
2509.46	57.7123
2521.51	57.2809
2533.56	56.8445
2545.62	56.3916
2557.67	55.9393
2569.72	55.4942
2581.78	55.0606
2593.83	54.6189
2605.88	54.1607
2617.94	53.7011
2629.99	53.2509
2642.04	52.81
2654.1	52.3714
2666.15	51.9159
2678.2	51.4439
2690.26	50.9832
2702.31	50.5284
2714.36	50.0888
2726.41	49.63
2738.47	49.1742
2750.52	48.7165
2762.57	48.2672
2774.63	47.8103
2786.68	47.3283
2798.73	46.824
2810.79	46.3332
2822.84	45.8622
2834.89	45.3442
2846.95	44.5137
2859	43.8789
2871.05	43.5747
2883.11	43.2534
2895.16	42.6898
2907.21	42.0056
2919.26	41.023
2931.32	40.5314
2943.37	40.6132
2955.42	40.0688
2967.48	39.8324
2979.53	39.9061
2991.58	39.6616
3003.64	39.2721
3015.69	38.7843
3027.74	38.4649
3039.8	38.112
3051.85	37.6699
3063.9	37.0153
3075.96	36.7681
3088.01	36.3887
3100.06	35.7248
3112.11	35.4503
3124.17	34.9755
3136.22	34.7291
3148.27	34.3245
3160.33	33.9109
3172.38	33.4858
3184.43	32.9722
3196.49	32.4757
3208.54	32.1134
3220.59	31.6969
3232.65	31.3541
3244.7	30.8324
3256.75	30.5684
3268.8	30.2647
3280.86	29.8372
3292.91	29.388
3304.96	29.1129
3317.02	28.7573
3329.07	28.3734
3341.12	28.0023
3353.18	27.6017
3365.23	27.0648
3377.28	26.9156
3389.34	26.5252
3401.39	26.1396
3413.44	25.8381
3425.5	25.4662
3437.55	25.0968
3449.6	24.6557
3461.65	24.1946
3473.71	24.0071
3485.76	23.6066
3497.81	23.3632
3509.87	22.5994
3521.92	22.0984
3533.97	22.4939
3546.03	20.5497
3558.08	21.6705
3570.13	20.6628
3582.19	20.7934
3594.24	18.6867
3606.29	18.0693
3618.35	16.0147
3630.4	15.7062
3642.45	19.2406
3654.5	17.3552
3666.56	17.7174
3678.61	16.591
3690.66	14.3633
3702.72	16.3758
3714.77	16.8611
3726.82	15.0678
3738.88	14.6892
3750.93	10.814
3762.98	16.2788
3775.04	16.9068
3787.09	16.4464
3799.14	13.218
3811.2	16.0185
3823.25	13.6991
3835.3	12.0592
3847.35	14.8489
3859.41	14.0366
3871.46	12.1486
3883.51	12.4623
3895.57	13.8554
3907.62	13.8437
3919.67	12.9674
3931.73	12.5563
3943.78	12.8648
3955.83	13.1451
3967.89	12.9697
3979.94	12.7918
3991.99	12.5449
4000.19	12.4724