File: Battery Recycling/6.27.2024/ChClUrea_Absorbance_FTIR.tsv
X	Y
400.163	0.655599
412.217	0.686153
424.27	0.727577
436.323	0.763106
448.376	0.818097
460.429	0.860747
472.482	0.89069
484.535	0.923451
496.588	0.982241
508.641	1.06567
520.695	1.19481
532.748	1.27598
544.801	1.21987
556.854	1.17446
568.907	1.251
580.96	1.42835
593.013	1.34996
605.066	1.21827
617.12	1.17243
629.173	1.10418
641.226	1.03252
653.279	0.967419
665.332	0.900611
677.385	0.831998
689.438	0.76986
701.491	0.714342
713.544	0.670451
725.598	0.611913
737.651	0.560811
749.704	0.504549
761.757	0.449317
773.81	0.467469
785.863	0.666122
797.916	0.530661
809.969	0.425004
822.022	0.366984
834.076	0.334101
846.129	0.323345
858.182	0.398681
870.235	0.426807
882.288	0.385992
894.341	0.355524
906.394	0.350646
918.447	0.419844
930.501	0.410562
942.554	0.573752
954.607	1.04967
966.66	0.583339
978.713	0.468732
990.766	0.452317
1002.82	0.558877
1014.87	0.488519
1026.93	0.476851
1038.98	0.557279
1051.03	0.73131
1063.08	0.722271
1075.14	0.819748
1087.19	0.943364
1099.24	0.591263
1111.3	0.507781
1123.35	0.546977
1135.4	0.644715
1147.46	0.638391
1159.51	0.729789
1171.56	0.76273
1183.62	0.69939
1195.67	0.625957
1207.72	0.578492
1219.78	0.526605
1231.83	0.516616
1243.88	0.488149
1255.93	0.471769
1267.99	0.487385
1280.04	0.485646
1292.09	0.444602
1304.15	0.443062
1316.2	0.45475
1328.25	0.480569
1340.31	0.517475
1352.36	0.534405
1364.41	0.542676
1376.47	0.599864
1388.52	0.677046
1400.57	0.871715
1412.63	1.32081
1424.68	1.77812
1436.73	1.8902
1448.78	1.62854
1460.84	1.34522
1472.89	1.42941
1484.94	1.3245
1497	0.812525
1509.05	0.537158
1521.1	0.486403
1533.16	0.497076
1545.21	0.558115
1557.26	0.676747
1569.32	0.955984
1581.37	1.4502
1593.42	2.31316
1605.48	3.3304
1617.53	3.42952
1629.58	3.13847
1641.63	2.51517
1653.69	2.76388
1665.74	3.24385
1677.79	3.30307
1689.85	3.03862
1701.9	1.39987
1713.95	0.664012
1726.01	0.456465
1738.06	0.350809
1750.11	0.278743
1762.17	0.242427
1774.22	0.216601
1786.27	0.199204
1798.32	0.181079
1810.38	0.168069
1822.43	0.158245
1834.48	0.150144
1846.54	0.1429
1858.59	0.138867
1870.64	0.134341
1882.7	0.133026
1894.75	0.132149
1906.8	0.132357
1918.86	0.133261
1930.91	0.136862
1942.96	0.139469
1955.02	0.143752
1967.07	0.145203
1979.12	0.143659
1991.17	0.140711
2003.23	0.139967
2015.28	0.140558
2027.33	0.142595
2039.39	0.143808
2051.44	0.142529
2063.49	0.140823
2075.55	0.140233
2087.6	0.140772
2099.65	0.141844
2111.71	0.144054
2123.76	0.149945
2135.81	0.16022
2147.87	0.186235
2159.92	0.186927
2171.97	0.165835
2184.02	0.162638
2196.08	0.163062
2208.13	0.160662
2220.18	0.156177
2232.24	0.152559
2244.29	0.150852
2256.34	0.150066
2268.4	0.149702
2280.45	0.150307
2292.5	0.149656
2304.56	0.150292
2316.61	0.150661
2328.66	0.149562
2340.72	0.148634
2352.77	0.148528
2364.82	0.150105
2376.87	0.15509
2388.93	0.154694
2400.98	0.155605
2413.03	0.156467
2425.09	0.156932
2437.14	0.157225
2449.19	0.156836
2461.25	0.157834
2473.3	0.161442
2485.35	0.165809
2497.41	0.166184
2509.46	0.165849
2521.51	0.167017
2533.56	0.169486
2545.62	0.176331
2557.67	0.183072
2569.72	0.189304
2581.78	0.198996
2593.83	0.207855
2605.88	0.213841
2617.94	0.216841
2629.99	0.219816
2642.04	0.228078
2654.1	0.237235
2666.15	0.242241
2678.2	0.245518
2690.26	0.247298
2702.31	0.247965
2714.36	0.248588
2726.41	0.252144
2738.47	0.260505
2750.52	0.271901
2762.57	0.282342
2774.63	0.293636
2786.68	0.309643
2798.73	0.328793
2810.79	0.350219
2822.84	0.370915
2834.89	0.383233
2846.95	0.393394
2859	0.401389
2871.05	0.407373
2883.11	0.410397
2895.16	0.408015
2907.21	0.413918
2919.26	0.427776
2931.32	0.435969
2943.37	0.447301
2955.42	0.479419
2967.48	0.496163
2979.53	0.467976
2991.58	0.461198
3003.64	0.485544
3015.69	0.57715
3027.74	0.63769
3039.8	0.631972
3051.85	0.637262
3063.9	0.659662
3075.96	0.711323
3088.01	0.787305
3100.06	0.880817
3112.11	0.988375
3124.17	1.11573
3136.22	1.2785
3148.27	1.49224
3160.33	1.76477
3172.38	2.07636
3184.43	2.34311
3196.49	2.44789
3208.54	2.38234
3220.59	2.28278
3232.65	2.26526
3244.7	2.34452
3256.75	2.46158
3268.8	2.53864
3280.86	2.60473
3292.91	2.69473
3304.96	2.83017
3317.02	2.95877
3329.07	2.9814
3341.12	2.98295
3353.18	2.91609
3365.23	2.84937
3377.28	2.77003
3389.34	2.68477
3401.39	2.62303
3413.44	2.54656
3425.5	2.4317
3437.55	2.3191
3449.6	2.15628
3461.65	1.95308
3473.71	1.68977
3485.76	1.37438
3497.81	1.02831
3509.87	0.729825
3521.92	0.541891
3533.97	0.439054
3546.03	0.377523
3558.08	0.33446
3570.13	0.302288
3582.19	0.274456
3594.24	0.25112
3606.29	0.231345
3618.35	0.214479
3630.4	0.204764
3642.45	0.19401
3654.5	0.183309
3666.56	0.176334
3678.61	0.173282
3690.66	0.169251
3702.72	0.170579
3714.77	0.170441
3726.82	0.169883
3738.88	0.167735
3750.93	0.163882
3762.98	0.169637
3775.04	0.171767
3787.09	0.17324
3799.14	0.167686
3811.2	0.175019
3823.25	0.17598
3835.3	0.172388
3847.35	0.178881
3859.41	0.17991
3871.46	0.180969
3883.51	0.180991
3895.57	0.184147
3907.62	0.186964
3919.67	0.186878
3931.73	0.186836
3943.78	0.187903
3955.83	0.188583
3967.89	0.189853
3979.94	0.190758
3991.99	0.190765
4000.19	0.190381